# ----------- instrument configuration summary -----------
# operator: Sergej Fust <sergej.fust@wsi.tum.de>
# date: 23-Nov-2020 13:30:46
# 
# ------------ Device: Lockin_U -------------
# driver: egg_7265.mdd, Interface: VISA-GPIB0-3
# Model: 7260
# bandwidth = 5.987500e-01
# current_noise = 5.260000e-05
# filt_slope = 24db/octace
# filt_syncTC = 1
# integration_done = 0
# mode = Signal Recovery
# osc_amplitude = 0
# osc_freq = 111
# range = 2mV
# range_numeric = 2.000000e-03
# ref_freq_meter = 111000
# ref_harmonic = 1
# ref_input = rear (external)
# ref_mode = Single Reference / Virtual Reference
# ref_phase = 180
# sig_acgain = 0
# sig_acgain_auto = 0
# sig_coupling = AC
# sig_fet = fet
# sig_float = 1
# sig_imode = off
# sig_linefilter = off
# sig_mode = A
# sig_sample_rate = 0
# sig_vmode = A
# timeconstant = 2.000000e-01
# 
# ------------ Device: Lockin_Uh -------------
# driver: egg_7265.mdd, Interface: VISA-GPIB0-2
# Model: 7260
# bandwidth = 5.987500e-01
# current_noise = 8.300000e-04
# filt_slope = 24db/octace
# filt_syncTC = 1
# integration_done = 0
# mode = Signal Recovery
# osc_amplitude = 1
# osc_freq = 111
# range = 50mV
# range_numeric = 5.000000e-02
# ref_freq_meter = 111000
# ref_harmonic = 1
# ref_input = internal
# ref_mode = Single Reference / Virtual Reference
# ref_phase = 0
# sig_acgain = 0
# sig_acgain_auto = 0
# sig_coupling = AC
# sig_fet = fet
# sig_float = 0
# sig_imode = off
# sig_linefilter = off
# sig_mode = A
# sig_sample_rate = 0
# sig_vmode = A
# timeconstant = 2.000000e-01
# 
# ------------ Device: Magnet -------------
# driver: lakeshore_625.mdd, Interface: VISA-GPIB0-22
# Model: LSCI,MODEL625,6251105,1.0/1.0
# current_B = 2.200940e+00
# current_I = 2.316780e+01
# current_V = 2.071000e-01
# current_remoteV = 5.000000e-04
# is_ramping = 0
# limit_current = 60
# limit_rate = 2.208000e-01
# limit_voltage = 1
# quench_parameter = 1,+2.0000
# rate = 2.208000e-01
# remote = Remote
# setB = 2.200000e+00
# setI = 2.315790e+01
# setV = 1
#
#
#--------------------------------------------------
# B	U	Uh	
# T	V	V	
# Magnet	Lockin_U	Lockin_Uh	
#--------------------------------------------------
4	5.68e-06	0.00259
3.999	7.24e-06	0.0025905
3.998	7.6e-06	0.002592
3.997	7.36e-06	0.002591
3.996	7.12e-06	0.0025905
3.995	7.22e-06	0.0025895
3.994	7.04e-06	0.002591
3.993	6.54e-06	0.0025905
3.992	6.34e-06	0.0025895
3.991	6.2e-06	0.0025895
3.99	6.08e-06	0.0025905
3.989	5.88e-06	0.002591
3.988	5.64e-06	0.0025905
3.987	5.58e-06	0.0025895
3.986	5.32e-06	0.0025895
3.985	4.94e-06	0.0025895
3.984	4.84e-06	0.002589
3.983	4.86e-06	0.0025895
3.982	4.86e-06	0.0025895
3.981	4.48e-06	0.0025895
3.98	4.18e-06	0.002589
3.979	4.2e-06	0.002589
3.978	4.08e-06	0.002589
3.977	3.96e-06	0.0025895
3.976	3.98e-06	0.0025905
3.975	3.94e-06	0.0025895
3.974	3.62e-06	0.0025895
3.973	3.44e-06	0.002588
3.972	3.16e-06	0.002588
3.971	3.3e-06	0.002589
3.97	3.34e-06	0.00259
3.969	3.02e-06	0.002589
3.968	2.8e-06	0.0025905
3.967	2.7e-06	0.0025895
3.966	2.58e-06	0.00259
3.965	2.42e-06	0.002588
3.964	2.36e-06	0.0025885
3.963	2.34e-06	0.0025895
3.962	2.34e-06	0.0025895
3.961	2.22e-06	0.002589
3.96	1.94e-06	0.002588
3.959	1.84e-06	0.002588
3.958	1.62e-06	0.002588
3.957	1.72e-06	0.002588
3.956	1.66e-06	0.0025895
3.955	1.4e-06	0.0025885
3.954	1.4e-06	0.002587
3.953	1.42e-06	0.002588
3.952	1.4e-06	0.0025885
3.951	1.26e-06	0.002587
3.95	1.2e-06	0.0025885
3.949	1.08e-06	0.002589
3.948	8e-07	0.0025885
3.947	8.2e-07	0.0025895
3.946	7e-07	0.0025885
3.945	5.8e-07	0.002588
3.944	8e-07	0.0025895
3.943	5.6e-07	0.002589
3.942	3.4e-07	0.002589
3.941	2.8e-07	0.002588
3.94	5.4e-07	0.002588
3.939	2.6e-07	0.002588
3.938	1.6e-07	0.002588
3.937	2e-07	0.0025885
3.936	1e-07	0.0025875
3.935	4e-08	0.0025885
3.934	-2e-08	0.002588
3.933	0	0.002588
3.932	4e-08	0.0025895
3.931	-1.2e-07	0.002589
3.93	-8e-08	0.002589
3.929	-2e-07	0.002589
3.928	-3.6e-07	0.0025875
3.927	-2.6e-07	0.0025885
3.926	-4e-07	0.0025865
3.925	-4.4e-07	0.002589
3.924	-5e-07	0.0025885
3.923	-5.4e-07	0.002588
3.922	-5e-07	0.0025875
3.921	-7.2e-07	0.002588
3.92	-7.4e-07	0.0025875
3.919	-7.2e-07	0.002588
3.918	-7.4e-07	0.002588
3.917	-7.4e-07	0.002588
3.916	-9.4e-07	0.0025875
3.915	-7.8e-07	0.002588
3.914	-9.2e-07	0.002588
3.913	-9.8e-07	0.0025875
3.912	-1.22e-06	0.002588
3.911	-1.16e-06	0.0025875
3.91	-1.1e-06	0.002588
3.909	-1.02e-06	0.0025885
3.908	-1.14e-06	0.002588
3.907	-1.2e-06	0.0025875
3.906	-1.24e-06	0.002588
3.905	-1.06e-06	0.002588
3.904	-1.38e-06	0.002588
3.903	-1.46e-06	0.002588
3.902	-1.5e-06	0.0025885
3.901	-1.42e-06	0.002588
3.9	-1.46e-06	0.0025885
3.899	-1.56e-06	0.0025875
3.898	-1.56e-06	0.0025885
3.897	-1.68e-06	0.002588
3.896	-1.4e-06	0.002588
3.895	-1.46e-06	0.0025875
3.894	-1.68e-06	0.0025875
3.893	-1.78e-06	0.0025875
3.892	-1.86e-06	0.002588
3.891	-1.6e-06	0.0025875
3.89	-1.42e-06	0.002588
3.889	-1.4e-06	0.002588
3.888	-1.6e-06	0.002588
3.887	-1.56e-06	0.002588
3.886	-1.74e-06	0.0025885
3.885	-1.92e-06	0.0025875
3.884	-1.68e-06	0.002588
3.883	-2.12e-06	0.002587
3.882	-1.98e-06	0.0025875
3.881	-1.98e-06	0.002588
3.88	-1.74e-06	0.0025885
3.879	-2.04e-06	0.0025875
3.878	-1.48e-06	0.0025875
3.877	-1.7e-06	0.0025885
3.876	-1.64e-06	0.002588
3.875	-1.72e-06	0.002588
3.874	-2.1e-06	0.002588
3.873	-1.98e-06	0.0025885
3.872	-1.52e-06	0.0025885
3.871	-1.88e-06	0.002588
3.87	-1.86e-06	0.002588
3.869	-2.6e-06	0.0025875
3.868	-2.48e-06	0.002588
3.867	-2e-06	0.0025885
3.866	-2.08e-06	0.002588
3.865	-2.64e-06	0.002588
3.864	-2.26e-06	0.002588
3.863	-3.44e-06	0.0025885
3.862	-3.18e-06	0.0025875
3.861	-2.32e-06	0.002588
3.86	-1.92e-06	0.0025885
3.859	-2.04e-06	0.0025885
3.858	-2.14e-06	0.002588
3.857	-2.12e-06	0.002588
3.856	-2.1e-06	0.002588
3.855	-2.12e-06	0.002588
3.854	-1.9e-06	0.0025885
3.853	-1.92e-06	0.002588
3.852	-2.2e-06	0.0025875
3.851	-1.28e-06	0.0025885
3.85	-1.04e-06	0.0025885
3.849	-2.02e-06	0.002588
3.848	-1.78e-06	0.0025885
3.847	-1.8e-06	0.002588
3.846	-2.52e-06	0.0025885
3.845	-2.08e-06	0.002588
3.844	-2.08e-06	0.002588
3.843	-2.18e-06	0.0025885
3.842	-3.2e-06	0.002589
3.841	-3.36e-06	0.002588
3.84	-2.48e-06	0.002588
3.839	-2.32e-06	0.002588
3.838	-2.44e-06	0.002588
3.837	-2.78e-06	0.002588
3.836	-2.14e-06	0.002588
3.835	-2.04e-06	0.0025885
3.834	-1.96e-06	0.002588
3.833	-2.18e-06	0.002589
3.832	-2.44e-06	0.002588
3.831	-2.5e-06	0.0025875
3.83	-2.44e-06	0.0025885
3.829	-2e-06	0.002589
3.828	-1.86e-06	0.0025885
3.827	-1.76e-06	0.0025885
3.826	-1.98e-06	0.002588
3.825	-1.28e-06	0.002588
3.824	-2.42e-06	0.002588
3.823	-2.2e-06	0.0025885
3.822	-7e-07	0.0025885
3.821	-2.06e-06	0.0025885
3.82	-1.72e-06	0.0025885
3.819	-1.86e-06	0.0025885
3.818	-2.24e-06	0.002589
3.817	-2.78e-06	0.002588
3.816	-2.36e-06	0.002588
3.815	-2.54e-06	0.002588
3.814	-2.56e-06	0.002589
3.813	-2.5e-06	0.002589
3.812	-2.26e-06	0.0025885
3.811	-2.38e-06	0.002588
3.81	-2.38e-06	0.002588
3.809	-2.32e-06	0.0025885
3.808	-2.28e-06	0.002589
3.807	-2.14e-06	0.0025885
3.806	-2.18e-06	0.0025875
3.805	-2.04e-06	0.0025885
3.804	-2.26e-06	0.002588
3.803	-2.04e-06	0.0025885
3.802	-2.14e-06	0.002588
3.801	-2.54e-06	0.0025875
3.8	-2.24e-06	0.002588
3.799	-2.1e-06	0.0025885
3.798	-2.2e-06	0.002588
3.797	-2.2e-06	0.0025885
3.796	-2.12e-06	0.0025885
3.795	-2.24e-06	0.0025885
3.794	-2.3e-06	0.0025885
3.793	-2.22e-06	0.002588
3.792	-2.14e-06	0.0025885
3.791	-2.26e-06	0.002589
3.79	-2.28e-06	0.002589
3.789	-2.46e-06	0.002589
3.788	-2.5e-06	0.002588
3.787	-2.4e-06	0.0025885
3.786	-2.42e-06	0.002589
3.785	-2.3e-06	0.0025895
3.784	-2.4e-06	0.002589
3.783	-2.26e-06	0.002589
3.782	-2.36e-06	0.002589
3.781	-2.32e-06	0.0025895
3.78	-2.36e-06	0.0025895
3.779	-2.2e-06	0.0025885
3.778	-2.32e-06	0.002588
3.777	-2.2e-06	0.00259
3.776	-2.18e-06	0.002589
3.775	-1.98e-06	0.002589
3.774	-2.08e-06	0.002588
3.773	-2.2e-06	0.002589
3.772	-2.14e-06	0.002589
3.771	-2.28e-06	0.002589
3.77	-2.1e-06	0.0025895
3.769	-2.36e-06	0.002589
3.768	-2.32e-06	0.0025895
3.767	-2.38e-06	0.0025895
3.766	-2.32e-06	0.0025885
3.765	-2.26e-06	0.0025895
3.764	-2.5e-06	0.002588
3.763	-2.48e-06	0.002588
3.762	-2.18e-06	0.002589
3.761	-2.24e-06	0.002589
3.76	-2.08e-06	0.002588
3.759	-2.16e-06	0.002588
3.758	-2.18e-06	0.0025885
3.757	-2.04e-06	0.002589
3.756	-1.74e-06	0.0025885
3.755	-1.64e-06	0.002589
3.754	-1.84e-06	0.002589
3.753	-1.62e-06	0.002588
3.752	-1.52e-06	0.002588
3.751	-1.4e-06	0.002589
3.75	-1.56e-06	0.002589
3.749	-1.28e-06	0.002589
3.748	-1.26e-06	0.00259
3.747	-1.02e-06	0.002589
3.746	-1.1e-06	0.002588
3.745	-8e-07	0.0025885
3.744	-7.2e-07	0.002589
3.743	-6.6e-07	0.0025885
3.742	-4.8e-07	0.002588
3.741	-2.2e-07	0.0025885
3.74	-3.8e-07	0.002589
3.739	-3.4e-07	0.002589
3.738	2e-08	0.00259
3.737	2.8e-07	0.0025885
3.736	3.4e-07	0.002589
3.735	5.6e-07	0.0025885
3.734	7.2e-07	0.002589
3.733	9.8e-07	0.0025905
3.732	1.06e-06	0.00259
3.731	1.1e-06	0.0025885
3.73	1.24e-06	0.0025885
3.729	1.58e-06	0.002589
3.728	1.8e-06	0.002589
3.727	1.9e-06	0.0025895
3.726	2.06e-06	0.0025885
3.725	2.18e-06	0.002589
3.724	2.34e-06	0.002589
3.723	2.58e-06	0.0025885
3.722	3e-06	0.00259
3.721	3.16e-06	0.0025895
3.72	3.58e-06	0.00259
3.719	3.78e-06	0.0025895
3.718	3.62e-06	0.0025895
3.717	3.84e-06	0.0025895
3.716	4.08e-06	0.0025895
3.715	4.38e-06	0.0025895
3.714	4.64e-06	0.0025895
3.713	4.7e-06	0.0025895
3.712	4.88e-06	0.00259
3.711	5.06e-06	0.0025885
3.71	5.24e-06	0.00259
3.709	5.44e-06	0.00259
3.708	5.52e-06	0.0025895
3.707	5.88e-06	0.0025895
3.706	5.94e-06	0.00259
3.705	6e-06	0.0025905
3.704	6.16e-06	0.0025895
3.703	6.44e-06	0.0025905
3.702	6.52e-06	0.0025905
3.701	6.56e-06	0.0025895
3.7	6.64e-06	0.0025895
3.699	6.8e-06	0.00259
3.698	7e-06	0.0025905
3.697	7.32e-06	0.0025905
3.696	7.3e-06	0.00259
3.695	7.5e-06	0.0025905
3.694	7.72e-06	0.002591
3.693	7.9e-06	0.0025905
3.692	8.02e-06	0.002591
3.691	8.08e-06	0.002591
3.69	8.38e-06	0.002591
3.689	8.54e-06	0.00259
3.688	8.86e-06	0.0025905
3.687	8.92e-06	0.00259
3.686	9e-06	0.0025905
3.685	9.28e-06	0.00259
3.684	9.4e-06	0.00259
3.683	9.26e-06	0.0025905
3.682	9.46e-06	0.00259
3.681	9.58e-06	0.0025905
3.68	9.84e-06	0.0025905
3.679	9.86e-06	0.0025905
3.678	9.94e-06	0.00259
3.677	1.004e-05	0.00259
3.676	1.044e-05	0.0025905
3.675	1.048e-05	0.00259
3.674	1.05e-05	0.0025895
3.673	1.06e-05	0.0025905
3.672	1.09e-05	0.002591
3.671	1.096e-05	0.0025905
3.67	1.128e-05	0.002591
3.669	1.14e-05	0.0025905
3.668	1.138e-05	0.00259
3.667	1.13e-05	0.002591
3.666	1.16e-05	0.00259
3.665	1.182e-05	0.0025905
3.664	1.182e-05	0.002591
3.663	1.2e-05	0.0025905
3.662	1.212e-05	0.00259
3.661	1.23e-05	0.0025905
3.66	1.236e-05	0.0025905
3.659	1.238e-05	0.00259
3.658	1.264e-05	0.002591
3.657	1.272e-05	0.002591
3.656	1.262e-05	0.0025905
3.655	1.292e-05	0.0025915
3.654	1.308e-05	0.0025905
3.653	1.32e-05	0.002591
3.652	1.346e-05	0.002591
3.651	1.35e-05	0.002591
3.65	1.352e-05	0.0025905
3.649	1.356e-05	0.002591
3.648	1.388e-05	0.0025905
3.647	1.398e-05	0.0025905
3.646	1.416e-05	0.0025905
3.645	1.446e-05	0.0025915
3.644	1.456e-05	0.0025905
3.643	1.468e-05	0.0025905
3.642	1.482e-05	0.002591
3.641	1.502e-05	0.0025905
3.64	1.51e-05	0.00259
3.639	1.522e-05	0.002591
3.638	1.55e-05	0.0025915
3.637	1.558e-05	0.0025915
3.636	1.57e-05	0.0025925
3.635	1.566e-05	0.0025915
3.634	1.568e-05	0.0025905
3.633	1.598e-05	0.002591
3.632	1.616e-05	0.0025905
3.631	1.626e-05	0.0025905
3.63	1.65e-05	0.002591
3.629	1.67e-05	0.0025915
3.628	1.672e-05	0.002591
3.627	1.674e-05	0.002591
3.626	1.678e-05	0.0025905
3.625	1.696e-05	0.002591
3.624	1.706e-05	0.002592
3.623	1.724e-05	0.002591
3.622	1.764e-05	0.0025915
3.621	1.766e-05	0.002591
3.62	1.756e-05	0.002591
3.619	1.788e-05	0.0025915
3.618	1.808e-05	0.00259
3.617	1.822e-05	0.00259
3.616	1.83e-05	0.002592
3.615	1.854e-05	0.002591
3.614	1.852e-05	0.0025915
3.613	1.884e-05	0.0025915
3.612	1.896e-05	0.002591
3.611	1.906e-05	0.0025905
3.61	1.922e-05	0.00259
3.609	1.91e-05	0.002591
3.608	1.94e-05	0.0025905
3.607	1.962e-05	0.0025905
3.606	1.994e-05	0.002591
3.605	2.002e-05	0.002591
3.604	2.026e-05	0.0025915
3.603	2.026e-05	0.002591
3.602	2.024e-05	0.002591
3.601	2.042e-05	0.002591
3.6	2.038e-05	0.0025905
3.599	2.06e-05	0.002591
3.598	2.07e-05	0.0025905
3.597	2.082e-05	0.002591
3.596	2.074e-05	0.00259
3.595	2.118e-05	0.002591
3.594	2.128e-05	0.0025915
3.593	2.128e-05	0.002591
3.592	2.148e-05	0.0025915
3.591	2.184e-05	0.0025915
3.59	2.198e-05	0.0025915
3.589	2.224e-05	0.002591
3.588	2.234e-05	0.002591
3.587	2.242e-05	0.002591
3.586	2.252e-05	0.002591
3.585	2.296e-05	0.002592
3.584	2.312e-05	0.002591
3.583	2.328e-05	0.002591
3.582	2.336e-05	0.002591
3.581	2.37e-05	0.0025915
3.58	2.372e-05	0.0025915
3.579	2.376e-05	0.002591
3.578	2.406e-05	0.002592
3.577	2.436e-05	0.0025905
3.576	2.454e-05	0.0025915
3.575	2.46e-05	0.0025915
3.574	2.486e-05	0.0025915
3.573	2.512e-05	0.0025915
3.572	2.53e-05	0.0025905
3.571	2.546e-05	0.002592
3.57	2.544e-05	0.002592
3.569	2.588e-05	0.0025915
3.568	2.59e-05	0.002591
3.567	2.608e-05	0.0025915
3.566	2.634e-05	0.0025925
3.565	2.646e-05	0.002592
3.564	2.654e-05	0.0025915
3.563	2.666e-05	0.0025915
3.562	2.682e-05	0.002592
3.561	2.684e-05	0.0025915
3.56	2.728e-05	0.002591
3.559	2.738e-05	0.002592
3.558	2.752e-05	0.0025915
3.557	2.746e-05	0.0025915
3.556	2.776e-05	0.0025915
3.555	2.788e-05	0.002592
3.554	2.784e-05	0.0025915
3.553	2.812e-05	0.0025915
3.552	2.816e-05	0.002591
3.551	2.85e-05	0.0025905
3.55	2.862e-05	0.0025915
3.549	2.876e-05	0.0025925
3.548	2.902e-05	0.0025915
3.547	2.906e-05	0.002591
3.546	2.928e-05	0.002591
3.545	2.958e-05	0.0025915
3.544	2.972e-05	0.0025915
3.543	2.976e-05	0.0025915
3.542	3e-05	0.002592
3.541	3.016e-05	0.0025915
3.54	3.02e-05	0.002591
3.539	3.044e-05	0.0025905
3.538	3.062e-05	0.0025915
3.537	3.074e-05	0.002591
3.536	3.082e-05	0.0025905
3.535	3.1e-05	0.002591
3.534	3.138e-05	0.002591
3.533	3.138e-05	0.0025905
3.532	3.154e-05	0.00259
3.531	3.176e-05	0.0025915
3.53	3.188e-05	0.002591
3.529	3.22e-05	0.0025905
3.528	3.244e-05	0.0025915
3.527	3.236e-05	0.0025905
3.526	3.252e-05	0.0025905
3.525	3.282e-05	0.0025905
3.524	3.302e-05	0.0025915
3.523	3.314e-05	0.002592
3.522	3.35e-05	0.0025915
3.521	3.35e-05	0.002592
3.52	3.37e-05	0.0025915
3.519	3.392e-05	0.002591
3.518	3.408e-05	0.0025905
3.517	3.434e-05	0.00259
3.516	3.452e-05	0.0025915
3.515	3.474e-05	0.002591
3.514	3.498e-05	0.002591
3.513	3.524e-05	0.002592
3.512	3.526e-05	0.0025905
3.511	3.556e-05	0.002591
3.51	3.578e-05	0.0025915
3.509	3.602e-05	0.002591
3.508	3.612e-05	0.002591
3.507	3.644e-05	0.0025915
3.506	3.658e-05	0.0025905
3.505	3.678e-05	0.0025905
3.504	3.71e-05	0.0025905
3.503	3.74e-05	0.0025905
3.502	3.74e-05	0.00259
3.501	3.758e-05	0.00259
3.5	3.792e-05	0.0025905
3.499	3.832e-05	0.0025915
3.498	3.84e-05	0.002591
3.497	3.866e-05	0.0025905
3.496	3.882e-05	0.002591
3.495	3.914e-05	0.0025915
3.494	3.938e-05	0.0025915
3.493	3.946e-05	0.002592
3.492	3.978e-05	0.002591
3.491	3.998e-05	0.0025905
3.49	4.036e-05	0.0025905
3.489	4.046e-05	0.0025905
3.488	4.064e-05	0.00259
3.487	4.088e-05	0.0025905
3.486	4.114e-05	0.0025905
3.485	4.138e-05	0.002591
3.484	4.166e-05	0.0025905
3.483	4.178e-05	0.002589
3.482	4.208e-05	0.0025905
3.481	4.236e-05	0.002591
3.48	4.264e-05	0.00259
3.479	4.292e-05	0.00259
3.478	4.334e-05	0.002591
3.477	4.35e-05	0.00259
3.476	4.384e-05	0.0025905
3.475	4.398e-05	0.00259
3.474	4.43e-05	0.00259
3.473	4.46e-05	0.0025905
3.472	4.48e-05	0.0025905
3.471	4.502e-05	0.00259
3.47	4.518e-05	0.00259
3.469	4.538e-05	0.0025895
3.468	4.566e-05	0.00259
3.467	4.606e-05	0.00259
3.466	4.622e-05	0.00259
3.465	4.672e-05	0.0025905
3.464	4.698e-05	0.002591
3.463	4.718e-05	0.002591
3.462	4.758e-05	0.0025905
3.461	4.788e-05	0.00259
3.46	4.808e-05	0.002589
3.459	4.836e-05	0.0025905
3.458	4.854e-05	0.0025905
3.457	4.902e-05	0.0025905
3.456	4.934e-05	0.0025905
3.455	4.964e-05	0.00259
3.454	4.992e-05	0.0025895
3.453	5.032e-05	0.00259
3.452	5.056e-05	0.00259
3.451	5.108e-05	0.0025905
3.45	5.142e-05	0.0025905
3.449	5.166e-05	0.0025905
3.448	5.198e-05	0.0025895
3.447	5.244e-05	0.0025905
3.446	5.282e-05	0.002591
3.445	5.3e-05	0.00259
3.444	5.342e-05	0.0025905
3.443	5.362e-05	0.0025895
3.442	5.39e-05	0.0025895
3.441	5.43e-05	0.00259
3.44	5.468e-05	0.0025905
3.439	5.494e-05	0.002589
3.438	5.532e-05	0.002589
3.437	5.564e-05	0.002589
3.436	5.606e-05	0.0025895
3.435	5.632e-05	0.002589
3.434	5.668e-05	0.0025895
3.433	5.71e-05	0.0025895
3.432	5.746e-05	0.0025895
3.431	5.772e-05	0.0025885
3.43	5.816e-05	0.002589
3.429	5.85e-05	0.0025885
3.428	5.88e-05	0.0025885
3.427	5.91e-05	0.0025895
3.426	5.96e-05	0.002589
3.425	5.996e-05	0.0025885
3.424	6.032e-05	0.0025885
3.423	6.088e-05	0.002589
3.422	6.12e-05	0.002588
3.421	6.142e-05	0.002589
3.42	6.206e-05	0.0025885
3.419	6.25e-05	0.002589
3.418	6.264e-05	0.0025885
3.417	6.298e-05	0.002589
3.416	6.352e-05	0.002588
3.415	6.386e-05	0.002588
3.414	6.43e-05	0.0025885
3.413	6.48e-05	0.002588
3.412	6.508e-05	0.002588
3.411	6.556e-05	0.0025875
3.41	6.598e-05	0.002587
3.409	6.638e-05	0.0025875
3.408	6.694e-05	0.002588
3.407	6.756e-05	0.0025875
3.406	6.788e-05	0.002587
3.405	6.844e-05	0.0025875
3.404	6.882e-05	0.002587
3.403	6.926e-05	0.002588
3.402	6.984e-05	0.002588
3.401	7.028e-05	0.0025875
3.4	7.072e-05	0.0025875
3.399	7.136e-05	0.002586
3.398	7.168e-05	0.002587
3.397	7.186e-05	0.002587
3.396	7.22e-05	0.0025865
3.395	7.288e-05	0.0025875
3.394	7.336e-05	0.0025865
3.393	7.41e-05	0.0025875
3.392	7.454e-05	0.002587
3.391	7.51e-05	0.002587
3.39	7.586e-05	0.0025865
3.389	7.646e-05	0.0025865
3.388	7.722e-05	0.0025865
3.387	7.838e-05	0.0025875
3.386	7.93e-05	0.002586
3.385	8.06e-05	0.0025865
3.384	8.252e-05	0.0025865
3.383	8.44e-05	0.0025865
3.382	8.608e-05	0.0025845
3.381	8.776e-05	0.002585
3.38	8.918e-05	0.002585
3.379	9.056e-05	0.002584
3.378	9.186e-05	0.0025845
3.377	9.318e-05	0.0025845
3.376	9.474e-05	0.002584
3.375	9.582e-05	0.0025835
3.374	9.674e-05	0.002584
3.373	9.756e-05	0.0025835
3.372	0.0001013	0.0025825
3.371	0.00010676	0.0025815
3.37	0.00011162	0.002581
3.369	0.000116	0.002581
3.368	0.00012102	0.00258
3.367	0.00012512	0.002579
3.366	0.00012918	0.0025785
3.365	0.00013312	0.002578
3.364	0.00013804	0.0025765
3.363	0.00014262	0.002576
3.362	0.0001478	0.0025755
3.361	0.00015566	0.0025735
3.36	0.00016244	0.002573
3.359	0.00017194	0.0025705
3.358	0.00017956	0.002569
3.357	0.00018708	0.002568
3.356	0.00019412	0.0025665
3.355	0.00020264	0.0025645
3.354	0.0002091	0.0025625
3.353	0.00021512	0.0025615
3.352	0.0002221	0.002559
3.351	0.00022758	0.0025585
3.35	0.00023302	0.002557
3.349	0.00024208	0.0025545
3.348	0.00025202	0.0025515
3.347	0.00025952	0.0025495
3.346	0.00026748	0.0025475
3.345	0.00027314	0.0025455
3.344	0.0002786	0.002544
3.343	0.00028496	0.002542
3.342	0.00028952	0.0025405
3.341	0.0002946	0.0025395
3.34	0.00030048	0.002538
3.339	0.00030472	0.002536
3.338	0.00030864	0.002536
3.337	0.00031366	0.002534
3.336	0.0003185	0.002532
3.335	0.00032192	0.002531
3.334	0.00032526	0.002529
3.333	0.00032822	0.002528
3.332	0.00033248	0.002528
3.331	0.0003361	0.002526
3.33	0.00033884	0.0025245
3.329	0.00034188	0.002524
3.328	0.00034498	0.002522
3.327	0.00034792	0.002521
3.326	0.00035112	0.002519
3.325	0.00035368	0.0025185
3.324	0.00035654	0.0025165
3.323	0.0003597	0.002516
3.322	0.00036218	0.002515
3.321	0.0003644	0.0025135
3.32	0.0003676	0.0025125
3.319	0.00036988	0.002511
3.318	0.00037258	0.002509
3.317	0.00037484	0.002508
3.316	0.00037762	0.002507
3.315	0.00037936	0.002506
3.314	0.00038156	0.002505
3.313	0.00038332	0.002503
3.312	0.00038576	0.0025025
3.311	0.0003876	0.002502
3.31	0.00038944	0.0025
3.309	0.00039124	0.0025
3.308	0.00039312	0.0024985
3.307	0.00039492	0.002497
3.306	0.00039698	0.0024955
3.305	0.00039884	0.0024945
3.304	0.00040054	0.002494
3.303	0.00040256	0.002494
3.302	0.00040406	0.0024915
3.301	0.00040588	0.002491
3.3	0.00040762	0.0024895
3.299	0.00040896	0.002488
3.298	0.00041058	0.002488
3.297	0.00041208	0.002487
3.296	0.00041338	0.002485
3.295	0.00041468	0.0024845
3.294	0.00041616	0.002484
3.293	0.00041754	0.002482
3.292	0.00041872	0.0024815
3.291	0.00042004	0.002481
3.29	0.00042136	0.0024795
3.289	0.00042294	0.0024775
3.288	0.00042418	0.002477
3.287	0.0004253	0.0024755
3.286	0.0004268	0.0024755
3.285	0.0004277	0.0024755
3.284	0.00042882	0.002473
3.283	0.00043014	0.0024725
3.282	0.0004314	0.002471
3.281	0.00043262	0.002471
3.28	0.00043364	0.0024695
3.279	0.00043454	0.0024685
3.278	0.0004356	0.0024685
3.277	0.0004366	0.002468
3.276	0.00043744	0.0024645
3.275	0.00043846	0.0024635
3.274	0.00043932	0.002463
3.273	0.00044032	0.002463
3.272	0.00044128	0.0024625
3.271	0.00044206	0.0024595
3.27	0.00044326	0.00246
3.269	0.00044422	0.002459
3.268	0.00044494	0.002458
3.267	0.00044602	0.0024575
3.266	0.0004468	0.002457
3.265	0.00044744	0.002454
3.264	0.00044836	0.002454
3.263	0.0004493	0.0024525
3.262	0.00044994	0.0024515
3.261	0.00045092	0.0024515
3.26	0.00045182	0.002451
3.259	0.00045258	0.00245
3.258	0.00045312	0.0024485
3.257	0.00045386	0.002448
3.256	0.00045446	0.002447
3.255	0.00045504	0.0024455
3.254	0.00045588	0.002445
3.253	0.0004567	0.002445
3.252	0.0004574	0.002444
3.251	0.000458	0.0024425
3.25	0.00045856	0.0024415
3.249	0.00045924	0.002441
3.248	0.00045976	0.0024405
3.247	0.00046036	0.002439
3.246	0.0004613	0.002438
3.245	0.00046184	0.0024365
3.244	0.00046242	0.002436
3.243	0.00046276	0.0024345
3.242	0.00046362	0.0024335
3.241	0.00046432	0.002433
3.24	0.00046478	0.0024315
3.239	0.0004653	0.0024305
3.238	0.00046584	0.0024295
3.237	0.00046618	0.0024295
3.236	0.00046692	0.002429
3.235	0.00046734	0.0024265
3.234	0.00046818	0.0024265
3.233	0.0004687	0.0024245
3.232	0.00046948	0.0024245
3.231	0.00047002	0.0024245
3.23	0.00047044	0.002423
3.229	0.00047072	0.0024225
3.228	0.000471	0.002422
3.227	0.0004717	0.00242
3.226	0.00047204	0.0024195
3.225	0.00047224	0.002419
3.224	0.00047272	0.002418
3.223	0.00047308	0.0024165
3.222	0.00047386	0.0024155
3.221	0.00047452	0.002414
3.22	0.00047508	0.0024145
3.219	0.00047546	0.0024145
3.218	0.00047552	0.002412
3.217	0.00047578	0.0024115
3.216	0.000476	0.0024105
3.215	0.00047636	0.00241
3.214	0.00047676	0.002409
3.213	0.00047702	0.0024075
3.212	0.00047736	0.002407
3.211	0.00047782	0.0024065
3.21	0.00047808	0.0024045
3.209	0.00047852	0.0024045
3.208	0.0004789	0.002404
3.207	0.00047908	0.0024025
3.206	0.00047978	0.002402
3.205	0.00048016	0.002401
3.204	0.0004803	0.0023995
3.203	0.0004806	0.0024005
3.202	0.0004807	0.002399
3.201	0.000481	0.0023985
3.2	0.00048132	0.0023975
3.199	0.00048176	0.002397
3.198	0.00048198	0.0023955
3.197	0.00048226	0.002394
3.196	0.00048232	0.0023935
3.195	0.00048262	0.0023925
3.194	0.00048328	0.002392
3.193	0.0004834	0.002391
3.192	0.00048354	0.0023905
3.191	0.00048376	0.0023895
3.19	0.0004839	0.0023885
3.189	0.0004841	0.0023875
3.188	0.0004844	0.0023865
3.187	0.00048466	0.0023865
3.186	0.0004851	0.0023855
3.185	0.00048536	0.002385
3.184	0.00048534	0.0023835
3.183	0.0004856	0.0023825
3.182	0.00048592	0.0023825
3.181	0.00048616	0.002381
3.18	0.00048624	0.0023805
3.179	0.00048642	0.00238
3.178	0.0004866	0.002379
3.177	0.00048682	0.0023785
3.176	0.00048698	0.0023765
3.175	0.00048728	0.0023765
3.174	0.00048754	0.002375
3.173	0.0004876	0.002374
3.172	0.00048792	0.0023745
3.171	0.00048776	0.0023725
3.17	0.00048788	0.002371
3.169	0.0004881	0.0023715
3.168	0.00048816	0.0023695
3.167	0.00048816	0.0023685
3.166	0.00048858	0.002369
3.165	0.00048868	0.0023675
3.164	0.00048872	0.002366
3.163	0.00048878	0.0023655
3.162	0.00048884	0.0023655
3.161	0.00048914	0.002365
3.16	0.00048924	0.002364
3.159	0.00048954	0.0023635
3.158	0.00048954	0.002362
3.157	0.00048968	0.0023605
3.156	0.00048994	0.00236
3.155	0.00049012	0.00236
3.154	0.0004901	0.002359
3.153	0.0004903	0.0023575
3.152	0.0004904	0.0023565
3.151	0.0004904	0.002356
3.15	0.00049156	0.002356
3.149	0.00049168	0.0023555
3.148	0.00049114	0.002354
3.147	0.0004911	0.002353
3.146	0.00049114	0.0023515
3.145	0.00049108	0.0023515
3.144	0.00049122	0.0023505
3.143	0.00049142	0.002349
3.142	0.00049152	0.002349
3.141	0.00049168	0.0023495
3.14	0.00049148	0.0023475
3.139	0.0004918	0.002347
3.138	0.00049206	0.0023455
3.137	0.0004919	0.002345
3.136	0.00049176	0.002345
3.135	0.00049184	0.002344
3.134	0.00049194	0.002343
3.133	0.00049186	0.0023425
3.132	0.00049172	0.0023405
3.131	0.00049196	0.00234
3.13	0.00049228	0.0023395
3.129	0.00049236	0.0023385
3.128	0.00049246	0.002338
3.127	0.00049254	0.0023375
3.126	0.00049262	0.0023365
3.125	0.00049276	0.002336
3.124	0.00049254	0.0023335
3.123	0.0004924	0.002333
3.122	0.0004923	0.002333
3.121	0.00049292	0.0023315
3.12	0.00049288	0.002331
3.119	0.0004927	0.002331
3.118	0.00049278	0.0023295
3.117	0.00049266	0.002328
3.116	0.00049278	0.002328
3.115	0.00049298	0.002327
3.114	0.00049338	0.002327
3.113	0.00049324	0.002326
3.112	0.00049274	0.0023255
3.111	0.00049272	0.0023245
3.11	0.00049292	0.002324
3.109	0.0004929	0.0023235
3.108	0.00049264	0.002322
3.107	0.0004928	0.0023205
3.106	0.00048604	0.0023205
3.105	0.00045474	0.0023185
3.104	0.00044396	0.0023165
3.103	0.00044312	0.002315
3.102	0.00044772	0.0023155
3.101	0.00044722	0.0023145
3.1	0.00044762	0.002314
3.099	0.00045838	0.002313
3.098	0.00046934	0.0023125
3.097	0.00046988	0.002311
3.096	0.00046636	0.00231
3.095	0.00046014	0.002309
3.094	0.0004514	0.0023085
3.093	0.00044956	0.0023085
3.092	0.00044966	0.0023075
3.091	0.0004507	0.002306
3.09	0.00045184	0.002306
3.089	0.00045482	0.0023055
3.088	0.00045914	0.0023045
3.087	0.00045522	0.002304
3.086	0.00043606	0.002303
3.085	0.0003822	0.002301
3.084	0.00036228	0.0023005
3.083	0.00035548	0.0022995
3.082	0.00045186	0.0023005
3.081	0.0004779	0.0023005
3.08	0.0004302	0.0022975
3.079	0.00043168	0.0022975
3.078	0.00043424	0.0022965
3.077	0.00044996	0.0022955
3.076	0.00044722	0.002295
3.075	0.00043434	0.002294
3.074	0.00041172	0.0022925
3.073	0.00030222	0.0022915
3.072	0.00028144	0.0022905
3.071	0.00026902	0.0022895
3.07	0.00019094	0.002288
3.069	0.00012408	0.0022855
3.068	0.00011994	0.002285
3.067	9.795e-05	0.0022835
3.066	7.145e-05	0.002284
3.065	2.025e-05	0.002283
3.064	-0.00014395	0.002282
3.063	-0.00026265	0.00228
3.062	-0.00028425	0.00228
3.061	-0.0002881	0.002278
3.06	-6.505e-05	0.002278
3.059	0.0002063	0.002278
3.058	0.0001778	0.002277
3.057	0.0001994	0.0022775
3.056	0.00025685	0.0022775
3.055	0.00017945	0.002276
3.054	8.92e-05	0.0022745
3.053	9.65e-05	0.0022745
3.052	0.0001357	0.002274
3.051	9.035e-05	0.002273
3.05	5.17e-05	0.0022715
3.049	-3.675e-05	0.00227
3.048	-0.0002554	0.0022695
3.047	-5.965e-05	0.0022685
3.046	0.0001481	0.002269
3.045	0.00017205	0.002268
3.044	-7.55e-06	0.0022665
3.043	-0.0001402	0.0022655
3.042	-0.00015315	0.002266
3.041	0.00030985	0.0022675
3.04	0.00047315	0.002268
3.039	0.0004686	0.002267
3.038	0.00046055	0.002267
3.037	0.000265	0.002263
3.036	0.0002325	0.0022615
3.035	4.345e-05	0.0022595
3.034	8.48e-05	0.002259
3.033	-1.555e-05	0.0022585
3.032	-0.00023775	0.0022565
3.031	-0.00024925	0.0022555
3.03	-0.0005695	0.002254
3.029	-0.00058255	0.0022535
3.028	-0.00060725	0.0022525
3.027	-0.00066325	0.002252
3.026	-0.00066055	0.002251
3.025	-0.00065985	0.002251
3.024	-0.00058705	0.0022495
3.023	-0.0004295	0.002249
3.022	-0.00035245	0.002249
3.021	-8.64e-05	0.0022495
3.02	0.00019375	0.0022495
3.019	0.00019475	0.002249
3.018	0.00016525	0.0022485
3.017	0.00015695	0.0022465
3.016	0.00016655	0.002246
3.015	0.0001654	0.002245
3.014	-7.03e-05	0.002244
3.013	-0.00075675	0.002242
3.012	-0.00084775	0.002241
3.011	-0.0007701	0.002239
3.01	-0.0010429	0.0022385
3.009	-0.00123245	0.002239
3.008	-0.0013803	0.002238
3.007	-0.0015	0.002239
3.006	-0.0015	0.0022395
3.005	-0.0015	0.002239
3.004	-0.0015	0.002238
3.003	-0.0015	0.002236
3.002	-0.0015	0.0022375
3.001	-0.0015	0.002237
3	-0.0015	0.002236
2.999	-0.0015	0.002234
2.998	-0.0015	0.0022345
2.997	-0.0015	0.002234
2.996	-0.0017467	0.002232
2.995	0.0001876	0.002231
2.994	0.000258	0.0022305
2.993	4.6e-05	0.002229
2.992	6.7e-05	0.0022265
2.991	-5.9e-05	0.0022255
2.99	-5.5e-05	0.002225
2.989	-1.6e-05	0.0022245
2.988	-1.7e-05	0.0022235
2.987	0.000106	0.002223
2.986	0.0001465	0.002223
2.985	0.000137	0.002222
2.984	-3.9e-05	0.0022205
2.983	-0.0001075	0.0022195
2.982	-9.35e-05	0.0022185
2.981	-9.95e-05	0.0022175
2.98	-0.0001	0.002217
2.979	-0.0001565	0.0022165
2.978	-0.0002035	0.0022155
2.977	-0.0002825	0.002214
2.976	-0.0005845	0.0022135
2.975	-4.55e-05	0.002214
2.974	3.05e-05	0.0022135
2.973	-0.000149	0.0022125
2.972	-0.000405	0.0022105
2.971	-0.000734	0.0022095
2.97	-0.00073	0.00221
2.969	-0.00071	0.002208
2.968	-0.000616	0.0022075
2.967	-0.0003725	0.0022065
2.966	-0.000345	0.0022055
2.965	-0.000367	0.0022055
2.964	-0.0004065	0.002204
2.963	-0.0003465	0.002204
2.962	-0.000296	0.0022025
2.961	-0.0002115	0.002202
2.96	-0.0001945	0.002201
2.959	-0.000271	0.002201
2.958	-0.000343	0.002199
2.957	-0.000575	0.002199
2.956	-0.000543	0.0021995
2.955	-0.0005865	0.0021985
2.954	-0.0006195	0.002197
2.953	-0.000556	0.0021965
2.952	-0.0004805	0.0021945
2.951	-0.000409	0.002195
2.95	-0.000389	0.0021945
2.949	-0.000358	0.002194
2.948	-0.0003535	0.0021925
2.947	-0.0004755	0.002192
2.946	-0.0005605	0.002191
2.945	-0.0004055	0.0021905
2.944	-0.0005	0.0021895
2.943	-0.000559	0.002188
2.942	-0.0006055	0.002188
2.941	-0.000583	0.002187
2.94	-0.000773	0.002186
2.939	-0.0005465	0.0021855
2.938	-0.000423	0.002183
2.937	5.75e-05	0.0021855
2.936	0.000406	0.002186
2.935	0.000467	0.002187
2.934	0.000466	0.0021855
2.933	0.0004535	0.002185
2.932	0.000445	0.0021845
2.931	0.0004335	0.002184
2.93	0.0004025	0.0021845
2.929	0.0003665	0.0021975
2.928	0.0004135	0.0022405
2.927	0.0004135	0.0022865
2.926	0.000408	0.0023195
2.925	0.000409	0.0023195
2.924	0.000405	0.002334
2.923	0.0004045	0.0023375
2.922	0.000403	0.0023445
2.921	0.0004	0.002354
2.92	0.0004015	0.0023515
2.919	0.0004015	0.0023515
2.918	0.0004	0.0023555
2.917	0.0003965	0.0023545
2.916	0.000386	0.0023545
2.915	0.0003845	0.00236
2.914	0.000386	0.0023585
2.913	0.0003865	0.002355
2.912	0.0003885	0.002351
2.911	0.0003925	0.0023495
2.91	0.000392	0.0023495
2.909	0.000395	0.002346
2.908	0.0003975	0.002345
2.907	0.0004	0.002348
2.906	0.0003915	0.0023575
2.905	0.000384	0.0023785
2.904	0.00037	0.0024065
2.903	0.000347	0.002444
2.902	0.0003265	0.00247
2.901	0.000311	0.002484
2.9	0.000292	0.002504
2.899	0.0002885	0.0025075
2.898	0.000293	0.002507
2.897	0.0002965	0.0025065
2.896	0.000298	0.002506
2.895	0.000299	0.0025045
2.894	0.0003005	0.0025045
2.893	0.0003015	0.0025035
2.892	0.0003025	0.0025025
2.891	0.000304	0.0025015
2.89	0.000306	0.0025015
2.889	0.000307	0.0025
2.888	0.000309	0.0024985
2.887	0.00031	0.0024975
2.886	0.000311	0.0024975
2.885	0.0003125	0.0024955
2.884	0.000313	0.0024955
2.883	0.000315	0.0024945
2.882	0.0003185	0.002494
2.881	0.000312	0.002492
2.88	0.000319	0.002491
2.879	0.0003315	0.00249
2.878	0.0003255	0.0024895
2.877	0.000323	0.0024895
2.876	0.0003245	0.002488
2.875	0.000326	0.002488
2.874	0.000325	0.0024865
2.873	0.0003265	0.002485
2.872	0.000329	0.002484
2.871	0.0003305	0.002484
2.87	0.0003315	0.002483
2.869	0.000333	0.0024825
2.868	0.000334	0.002481
2.867	0.0003355	0.00248
2.866	0.000337	0.002479
2.865	0.0003385	0.002477
2.864	0.00034	0.002476
2.863	0.000341	0.002477
2.862	0.0003425	0.0024755
2.861	0.0003435	0.0024735
2.86	0.0003445	0.0024725
2.859	0.000346	0.002472
2.858	0.0003475	0.002471
2.857	0.000349	0.0024705
2.856	0.00035	0.002469
2.855	0.0003505	0.0024675
2.854	0.000352	0.0024665
2.853	0.0003535	0.002466
2.852	0.000355	0.002465
2.851	0.000356	0.0024635
2.85	0.0003575	0.0024625
2.849	0.0003556	0.002461
2.848	0.0002912	0.00246
2.847	0.0003158	0.002459
2.846	0.0003624	0.002458
2.845	0.0003538	0.0024575
2.844	0.0003617	0.002456
2.843	0.00036685	0.0024555
2.842	0.0003678	0.0024545
2.841	0.00036895	0.002453
2.84	0.00037005	0.002451
2.839	0.0003715	0.00245
2.838	0.00037285	0.0024505
2.837	0.0003741	0.00245
2.836	0.00037545	0.002448
2.835	0.0003767	0.002447
2.834	0.00037805	0.0024445
2.833	0.00037955	0.0024445
2.832	0.0003802	0.002443
2.831	0.00038135	0.002442
2.83	0.00038275	0.002441
2.829	0.00038365	0.00244
2.828	0.00038495	0.002439
2.827	0.00038635	0.0024365
2.826	0.0003875	0.002436
2.825	0.00038895	0.0024355
2.824	0.00038985	0.0024335
2.823	0.00039085	0.0024325
2.822	0.0003921	0.0024315
2.821	0.0003932	0.00243
2.82	0.0003943	0.0024285
2.819	0.0003954	0.0024275
2.818	0.00039655	0.0024275
2.817	0.00039785	0.0024255
2.816	0.00039945	0.002425
2.815	0.00040045	0.002424
2.814	0.00040125	0.002422
2.813	0.00040265	0.0024195
2.812	0.00040385	0.002419
2.811	0.0004048	0.0024185
2.81	0.00040625	0.0024165
2.809	0.00040745	0.0024155
2.808	0.00040805	0.0024145
2.807	0.00040915	0.002413
2.806	0.00041035	0.0024115
2.805	0.00041115	0.002411
2.804	0.0004123	0.002409
2.803	0.0004141	0.0024085
2.802	0.0004151	0.0024065
2.801	0.00041615	0.0024055
2.8	0.00041695	0.002404
2.799	0.0004181	0.0024035
2.798	0.0004193	0.0024015
2.797	0.0004202	0.0024005
2.796	0.00042105	0.002399
2.795	0.0004224	0.002397
2.794	0.00042345	0.0023965
2.793	0.0004244	0.002395
2.792	0.00042585	0.002394
2.791	0.0004268	0.0023925
2.79	0.00042755	0.0023915
2.789	0.0004289	0.0023905
2.788	0.0004298	0.0023885
2.787	0.00043055	0.0023885
2.786	0.00043175	0.002386
2.785	0.00043275	0.0023845
2.784	0.0004338	0.0023835
2.783	0.0004352	0.002381
2.782	0.0004361	0.0023795
2.781	0.0004367	0.002379
2.78	0.0004378	0.002378
2.779	0.00043865	0.0023765
2.778	0.00043955	0.0023755
2.777	0.0004409	0.002374
2.776	0.0004419	0.002373
2.775	0.0004425	0.0023715
2.774	0.00044355	0.0023695
2.773	0.00044435	0.002369
2.772	0.00044495	0.002368
2.771	0.0004463	0.002366
2.77	0.0004468	0.0023645
2.769	0.00044775	0.002363
2.768	0.00044875	0.0023615
2.767	0.00044965	0.0023605
2.766	0.00045035	0.0023585
2.765	0.00045125	0.0023565
2.764	0.00045205	0.0023555
2.763	0.0004531	0.0023545
2.762	0.0004544	0.0023535
2.761	0.00045505	0.002352
2.76	0.0004557	0.00235
2.759	0.00045655	0.0023485
2.758	0.0004577	0.002347
2.757	0.0004586	0.002345
2.756	0.00045945	0.0023445
2.755	0.0004605	0.002343
2.754	0.00046125	0.002341
2.753	0.00046155	0.00234
2.752	0.00046265	0.002339
2.751	0.00046385	0.0023375
2.75	0.00046435	0.0023355
2.749	0.000465	0.002334
2.748	0.0004662	0.002333
2.747	0.00046685	0.002331
2.746	0.00046775	0.002331
2.745	0.0004684	0.0023295
2.744	0.00046905	0.0023275
2.743	0.00046985	0.0023255
2.742	0.00047055	0.002325
2.741	0.00047145	0.0023235
2.74	0.00047245	0.0023225
2.739	0.00047315	0.00232
2.738	0.00047385	0.002319
2.737	0.00047455	0.0023165
2.736	0.0004754	0.002315
2.735	0.0004759	0.0023135
2.734	0.0004769	0.0023125
2.733	0.00047775	0.0023105
2.732	0.00047865	0.00231
2.731	0.00047925	0.002308
2.73	0.00047955	0.0023065
2.729	0.00048055	0.002305
2.728	0.00048125	0.002304
2.727	0.000482	0.0023025
2.726	0.00048255	0.0023005
2.725	0.00048345	0.0023005
2.724	0.00048385	0.002299
2.723	0.0004841	0.002295
2.722	0.000485	0.002294
2.721	0.0004856	0.0022925
2.72	0.0004865	0.0022925
2.719	0.00048725	0.002291
2.718	0.00048785	0.002289
2.717	0.00048885	0.0022875
2.716	0.00048945	0.002286
2.715	0.00049015	0.0022845
2.714	0.0004904	0.0022815
2.713	0.00049115	0.00228
2.712	0.0004918	0.00228
2.711	0.00049225	0.0022785
2.71	0.0004931	0.002277
2.709	0.0004934	0.002275
2.708	0.00049435	0.002273
2.707	0.0004945	0.0022715
2.706	0.00049565	0.0022715
2.705	0.0004961	0.002269
2.704	0.00049645	0.0022675
2.703	0.0004967	0.0022655
2.702	0.0004969	0.0022635
2.701	0.00049805	0.0022625
2.7	0.00049855	0.0022615
2.699	0.00049865	0.002259
2.698	0.00049935	0.0022575
2.697	0.00049965	0.0022565
2.696	0.00050035	0.002256
2.695	0.0005007	0.0022545
2.694	0.0005017	0.002253
2.693	0.00050195	0.0022515
2.692	0.0005022	0.0022485
2.691	0.00050285	0.002248
2.69	0.00050315	0.002245
2.689	0.00050355	0.002244
2.688	0.00050445	0.0022425
2.687	0.000505	0.0022415
2.686	0.00050515	0.002241
2.685	0.00050555	0.002238
2.684	0.00050605	0.0022365
2.683	0.00050645	0.0022355
2.682	0.0005068	0.0022335
2.681	0.00050755	0.002232
2.68	0.00050795	0.00223
2.679	0.00050865	0.002228
2.678	0.0005089	0.0022265
2.677	0.00050905	0.002225
2.676	0.0005092	0.0022245
2.675	0.00050995	0.0022235
2.674	0.00051	0.0022215
2.673	0.00051055	0.002219
2.672	0.00051105	0.0022175
2.671	0.0005114	0.0022165
2.67	0.0005115	0.002215
2.669	0.0005123	0.002214
2.668	0.00051245	0.0022135
2.667	0.0005127	0.0022115
2.666	0.00051325	0.0022095
2.665	0.0005133	0.002208
2.664	0.0005136	0.0022065
2.663	0.0005138	0.0022035
2.662	0.0005143	0.0022025
2.661	0.00051475	0.0022005
2.66	0.000515	0.0022
2.659	0.00051515	0.0021965
2.658	0.0005155	0.002196
2.657	0.00051585	0.002195
2.656	0.00051655	0.0021925
2.655	0.0005165	0.002192
2.654	0.0005168	0.002192
2.653	0.0005172	0.0021895
2.652	0.0005174	0.002186
2.651	0.0005179	0.002185
2.65	0.0005179	0.002184
2.649	0.0005183	0.002183
2.648	0.0005185	0.0021815
2.647	0.0005186	0.0021795
2.646	0.00051865	0.0021785
2.645	0.0005191	0.0021765
2.644	0.00051945	0.0021735
2.643	0.0005194	0.002173
2.642	0.0005198	0.0021715
2.641	0.00051985	0.0021695
2.64	0.00052005	0.002168
2.639	0.00052025	0.002167
2.638	0.00052045	0.0021655
2.637	0.00052055	0.002164
2.636	0.00052085	0.002163
2.635	0.0005209	0.0021615
2.634	0.00052115	0.0021585
2.633	0.00052135	0.0021575
2.632	0.0005212	0.0021555
2.631	0.0005215	0.002155
2.63	0.00052165	0.0021525
2.629	0.0005219	0.0021505
2.628	0.000522	0.00215
2.627	0.00052215	0.0021485
2.626	0.00052215	0.002147
2.625	0.00052235	0.002145
2.624	0.0005224	0.002145
2.623	0.00052255	0.002144
2.622	0.00052255	0.002141
2.621	0.00052265	0.0021375
2.62	0.00052275	0.002137
2.619	0.0005232	0.0021375
2.618	0.00052325	0.002136
2.617	0.0005232	0.0021335
2.616	0.0005235	0.002133
2.615	0.00052315	0.00213
2.614	0.00052365	0.002129
2.613	0.0005235	0.0021275
2.612	0.00052355	0.0021265
2.611	0.0005234	0.0021255
2.61	0.00052335	0.002123
2.609	0.00052355	0.002122
2.608	0.0005239	0.00212
2.607	0.00052395	0.0021185
2.606	0.00052365	0.002116
2.605	0.0005237	0.002115
2.604	0.0005237	0.0021135
2.603	0.00052375	0.002113
2.602	0.00052385	0.00211
2.601	0.0005238	0.0021075
2.6	0.000524	0.002107
2.599	0.00052385	0.0021045
2.598	0.00052385	0.0021035
2.597	0.0005236	0.002101
2.596	0.00052345	0.0021
2.595	0.0005235	0.0021
2.594	0.0005238	0.002099
2.593	0.0005238	0.0020965
2.592	0.0005236	0.0020945
2.591	0.00052365	0.0020935
2.59	0.00052375	0.002093
2.589	0.00052335	0.002091
2.588	0.00052325	0.002089
2.587	0.0005232	0.002088
2.586	0.0005229	0.0020865
2.585	0.00052345	0.002086
2.584	0.0005233	0.002084
2.583	0.0005231	0.002082
2.582	0.00052305	0.002081
2.581	0.00052295	0.0020785
2.58	0.000523	0.002077
2.579	0.0005228	0.002076
2.578	0.00052285	0.0020755
2.577	0.0005227	0.002074
2.576	0.00052275	0.002073
2.575	0.0005218	0.002071
2.574	0.0005224	0.00207
2.573	0.00052215	0.0020675
2.572	0.00052195	0.0020665
2.571	0.00052195	0.0020635
2.57	0.00052145	0.0020625
2.569	0.00052195	0.002062
2.568	0.00052165	0.002061
2.567	0.0005213	0.00206
2.566	0.00052175	0.002057
2.565	0.00052085	0.0020565
2.564	0.0005205	0.002055
2.563	0.0005211	0.002053
2.562	0.00052035	0.002051
2.561	0.00052015	0.0020505
2.56	0.0005209	0.002049
2.559	0.00052055	0.0020465
2.558	0.00051945	0.002045
2.557	0.0005194	0.0020445